Time,Extension,Load
(sec),(mm),(N)
0.00000,-0.00006,6.61369
0.10000,-0.00108,6.78642
0.20000,-0.00484,7.78676
0.30000,-0.00909,8.01002
0.40000,-0.01285,6.96150
0.50000,-0.01644,6.98774
0.60000,-0.01985,6.67126
0.70000,-0.02320,6.48287
0.80000,-0.02661,7.82005
0.90000,-0.03007,6.96424
1.00000,-0.03330,7.40762
1.10000,-0.03671,7.60032
1.20000,-0.04006,6.58274
1.30000,-0.04323,6.77506
1.40000,-0.04664,6.93212
1.50000,-0.05004,6.40962
1.60000,-0.05327,6.38025
1.70000,-0.05668,6.51655
1.80000,-0.06009,7.44169
1.90000,-0.06326,6.45506
2.00000,-0.06667,6.82872
2.10000,-0.07007,6.56708
2.20000,-0.07330,5.94118
2.30000,-0.07665,6.43312
2.40000,-0.08012,6.32541
2.50000,-0.08329,6.43861
2.60000,-0.08663,6.33560
2.70000,-0.08998,6.53809
2.80000,-0.09333,5.95723
2.90000,-0.09656,6.65285
3.00000,-0.10009,6.88003
3.10000,-0.10338,6.07983
3.20000,-0.10660,6.68145
3.30000,-0.11001,6.51733
3.40000,-0.11336,7.19924
3.50000,-0.11659,6.30269
3.60000,-0.12000,6.34382
3.70000,-0.12341,5.91258
3.80000,-0.12663,6.14524
3.90000,-0.12998,6.33560
4.00000,-0.13339,5.97329
4.10000,-0.13656,6.65246
4.20000,-0.14003,5.16134
4.30000,-0.14344,5.46372
4.40000,-0.14666,5.42573
4.50000,-0.15007,5.44805
4.60000,-0.15348,5.69285
4.70000,-0.15665,5.84717
4.80000,-0.15994,5.45628
4.90000,-0.16334,5.67366
5.00000,-0.16663,5.87890
5.10000,-0.16992,5.27807
5.20000,-0.17339,5.55694
5.30000,-0.17674,5.31292
5.40000,-0.17991,4.65647
5.50000,-0.18331,4.55934
5.60000,-0.18666,4.98548
5.70000,-0.18989,5.07870
5.80000,-0.19330,4.71522
5.90000,-0.19683,3.85667
6.00000,-0.19994,4.05094
6.10000,-0.20334,4.04546
6.20000,-0.20669,4.32120
6.30000,-0.20998,2.92878
6.40000,-0.21333,3.24722
6.50000,-0.21674,2.66087
6.60000,-0.22003,2.29192
6.70000,-0.22337,1.82190
6.80000,-0.22672,1.09064
6.90000,-0.22995,-0.17683
7.00000,-0.23324,-1.12469
7.10000,-0.23665,-3.24837
7.20000,-0.23994,-6.86081
7.30000,-0.24334,-11.75130
7.40000,-0.24669,-16.27204
7.50000,-0.25010,-23.71000
7.60000,-0.25327,-32.01396
7.70000,-0.25674,-39.87258
7.80000,-0.26002,-49.03510
7.90000,-0.26325,-54.31061
8.00000,-0.26666,-64.07984
8.10000,-0.27007,-79.80178
8.20000,-0.27324,-97.42532
8.30000,-0.27665,-118.14468
8.40000,-0.28005,-141.14125
8.50000,-0.28322,-166.21255
8.60000,-0.28663,-193.39105
8.70000,-0.29004,-225.88426
8.80000,-0.29327,-256.06186
8.90000,-0.29668,-292.53331
9.00000,-0.30008,-330.20761
9.10000,-0.30325,-366.81225
9.20000,-0.30660,-408.44171
9.30000,-0.31001,-452.61551
9.40000,-0.31330,-497.42465
9.50000,-0.31659,-542.11547
9.60000,-0.32011,-591.83226
9.70000,-0.32328,-641.97644
9.80000,-0.32651,-693.05436
9.90000,-0.32998,-749.27495
10.00000,-0.33327,-805.70709
10.10000,-0.33656,-861.39822
10.20000,-0.34002,-925.07796
10.30000,-0.34337,-987.56272
10.40000,-0.34648,-1046.54822
10.50000,-0.34995,-1107.68005
10.60000,-0.35336,-1170.56044
10.70000,-0.35652,-1233.78076
10.80000,-0.35999,-1305.78559
10.90000,-0.36340,-1376.38506
11.00000,-0.36663,-1442.82850
11.10000,-0.36998,-1514.88706
11.20000,-0.37339,-1590.71311
11.30000,-0.37655,-1661.82145
11.40000,-0.37990,-1733.68640
11.50000,-0.38331,-1811.64294
11.60000,-0.38660,-1886.65707
11.70000,-0.38995,-1965.44696
11.80000,-0.39341,-2048.33448
11.90000,-0.39664,-2128.74673
12.00000,-0.39987,-2209.59522
12.10000,-0.40328,-2293.03129
12.20000,-0.40663,-2377.67752
12.30000,-0.40980,-2459.25225
12.40000,-0.41332,-2547.95235
12.50000,-0.41667,-2638.67732
12.60000,-0.41984,-2719.13353
12.70000,-0.42331,-2809.59066
12.80000,-0.42666,-2898.92461
12.90000,-0.42989,-2986.65874
13.00000,-0.43329,-3074.55752
13.10000,-0.43670,-3167.62403
13.20000,-0.43993,-3256.16151
13.30000,-0.44328,-3349.26620
13.40000,-0.44663,-3444.91228
13.50000,-0.44992,-3535.20960
13.60000,-0.45326,-3628.99527
13.70000,-0.45667,-3724.12838
13.80000,-0.45996,-3818.99662
13.90000,-0.46331,-3916.54260
14.00000,-0.46666,-4013.98875
14.10000,-0.46995,-4112.19820
14.20000,-0.47317,-4206.16716
14.30000,-0.47670,-4309.80809
14.40000,-0.47993,-4410.33356
14.50000,-0.48328,-4504.30736
14.60000,-0.48669,-4609.51999
14.70000,-0.48997,-4710.61878
14.80000,-0.49320,-4807.24201
14.90000,-0.49661,-4911.50729
15.00000,-0.49996,-5016.14623
15.10000,-0.50325,-5115.35369
15.20000,-0.50672,-5225.45800
15.30000,-0.51000,-5328.47494
15.40000,-0.51317,-5428.42001
15.50000,-0.51664,-5536.76970
15.60000,-0.51999,-5645.75344
15.70000,-0.52322,-5745.11662
15.80000,-0.52663,-5857.13647
15.90000,-0.53003,-5965.32412
16.00000,-0.53332,-6072.47353
16.10000,-0.53667,-6180.66601
16.20000,-0.54002,-6295.41054
16.30000,-0.54325,-6398.55266
16.40000,-0.54654,-6505.66518
16.50000,-0.55000,-6618.99969
16.60000,-0.55329,-6728.68490
16.70000,-0.55658,-6832.75536
16.80000,-0.56011,-6952.88554
16.90000,-0.56328,-7062.27124
17.00000,-0.56651,-7164.97749
17.10000,-0.56997,-7282.14160
17.20000,-0.57332,-7393.84070
17.30000,-0.57649,-7495.43980
17.40000,-0.58008,-7616.62275
17.50000,-0.58331,-7728.25181
17.60000,-0.58654,-7831.70462
17.70000,-0.58994,-7945.93096
17.80000,-0.59335,-8060.24522
17.90000,-0.59652,-8163.22491
18.00000,-0.59993,-8271.79030
18.10000,-0.60340,-8389.38132
18.20000,-0.60662,-8496.50204
18.30000,-0.60997,-8608.11025
18.40000,-0.61338,-8724.00552
18.50000,-0.61655,-8830.20535
18.60000,-0.61990,-8939.51505
18.70000,-0.62331,-9054.51775
18.80000,-0.62665,-9166.56703
18.90000,-0.62988,-9273.42176
19.00000,-0.63341,-9393.39697
19.10000,-0.63658,-9500.54899
19.20000,-0.63987,-9607.05131
19.30000,-0.64334,-9726.74340
19.40000,-0.64662,-9834.29924
19.50000,-0.64991,-9940.69949
19.60000,-0.65338,-10057.50075
19.70000,-0.65667,-10168.91003
19.80000,-0.65984,-10271.35551
19.90000,-0.66330,-10389.43529
20.00000,-0.66659,-10500.69034
20.10000,-0.66988,-10603.09857
20.20000,-0.67329,-10712.44851
20.30000,-0.67670,-10830.74957
20.40000,-0.67993,-10937.72948
20.50000,-0.68327,-11045.84634
20.60000,-0.68668,-11155.52559
20.70000,-0.68991,-11264.84722
20.80000,-0.69326,-11367.22267
20.90000,-0.69673,-11481.49371
21.00000,-0.69996,-11586.70634
21.10000,-0.70336,-11699.78008
21.20000,-0.70671,-11809.00559
21.30000,-0.70988,-11913.39195
21.40000,-0.71323,-12021.39184
21.50000,-0.71670,-12137.00846
21.60000,-0.71993,-12235.05512
21.70000,-0.72327,-12347.51642
21.80000,-0.72668,-12461.36650
21.90000,-0.72991,-12561.57607
22.00000,-0.73314,-12662.70578
22.10000,-0.73667,-12782.07600
22.20000,-0.73990,-12884.40526
22.30000,-0.74324,-12986.36198
22.40000,-0.74665,-13095.99280
22.50000,-0.75000,-13210.57528
22.60000,-0.75323,-13312.08050
22.70000,-0.75664,-13414.43658
22.80000,-0.75998,-13525.72590
22.90000,-0.76321,-13624.45503
23.00000,-0.76662,-13726.34321
23.10000,-0.77003,-13834.68211
23.20000,-0.77326,-13939.35680
23.30000,-0.77667,-14043.11955
23.40000,-0.78007,-14151.34817
23.50000,-0.78318,-14246.40566
23.60000,-0.78653,-14346.83502
23.70000,-0.79006,-14461.40856
23.80000,-0.79329,-14559.01116
23.90000,-0.79658,-14658.95772
24.00000,-0.80004,-14777.49795
24.10000,-0.80327,-14873.31390
24.20000,-0.80656,-14970.91949
24.30000,-0.80997,-15081.59637
24.40000,-0.81332,-15186.81794
24.50000,-0.81655,-15277.59880
24.60000,-0.82001,-15386.91819
24.70000,-0.82330,-15496.59669
24.80000,-0.82653,-15589.83922
24.90000,-0.82994,-15693.36504
25.00000,-0.83341,-15803.18362
25.10000,-0.83657,-15895.61105
25.20000,-0.83992,-15996.06723
25.30000,-0.84333,-16105.43728
25.40000,-0.84662,-16206.35241
25.50000,-0.84991,-16302.27119
25.60000,-0.85344,-16408.43302
25.70000,-0.85654,-16495.58544
25.80000,-0.85995,-16595.50220
25.90000,-0.86342,-16703.42088
26.00000,-0.86665,-16796.27597
26.10000,-0.86994,-16900.56026
26.20000,-0.87335,-17004.41986
26.30000,-0.87651,-17097.50891
26.40000,-0.87986,-17196.04880
26.50000,-0.88327,-17305.80479
26.60000,-0.88662,-17402.77857
26.70000,-0.88991,-17501.30057
26.80000,-0.89326,-17604.48217
26.90000,-0.89660,-17708.92292
27.00000,-0.89989,-17801.02104
27.10000,-0.90318,-17899.72931
27.20000,-0.90665,-18001.97363
27.30000,-0.90988,-18096.59004
27.40000,-0.91328,-18190.18275
27.50000,-0.91675,-18302.77145
27.60000,-0.91992,-18388.82416
27.70000,-0.92327,-18484.74592
27.80000,-0.92668,-18586.34353
27.90000,-0.92991,-18678.06017
28.00000,-0.93325,-18772.63486
28.10000,-0.93672,-18875.18466
28.20000,-0.93995,-18971.86339
28.30000,-0.94330,-19070.18572
28.40000,-0.94665,-19167.39345
28.50000,-0.94982,-19256.17605
28.60000,-0.95322,-19355.38650
28.70000,-0.95669,-19460.80923
28.80000,-0.95992,-19553.25603
28.90000,-0.96327,-19654.40363
29.00000,-0.96662,-19759.31525
29.10000,-0.96997,-19857.30082
29.20000,-0.97319,-19952.96627
29.30000,-0.97660,-20052.41513
29.40000,-0.97995,-20151.92062
29.50000,-0.98318,-20240.68683
29.60000,-0.98665,-20344.78039
29.70000,-0.98999,-20450.28061
29.80000,-0.99316,-20536.64327
29.90000,-0.99663,-20632.82728
30.00000,-1.00004,-20734.80785
30.10000,-1.00321,-20819.65655
30.20000,-1.00656,-20908.88619
30.30000,-1.01008,-21019.14734
30.40000,-1.01319,-21109.68679
30.50000,-1.01666,-21204.85008
30.60000,-1.02001,-21304.45242
30.70000,-1.02324,-21391.21443
30.80000,-1.02665,-21485.04853
30.90000,-1.03011,-21579.01973
31.00000,-1.03328,-21671.13870
31.10000,-1.03657,-21758.31050
31.20000,-1.04004,-21862.82575
31.30000,-1.04327,-21952.73638
31.40000,-1.04656,-22040.20917
31.50000,-1.05002,-22141.55644
31.60000,-1.05337,-22239.31849
31.70000,-1.05648,-22322.20173
31.80000,-1.05989,-22422.37031
31.90000,-1.06330,-22523.47320
32.00000,-1.06653,-22607.75268
32.10000,-1.06987,-22700.55264
32.20000,-1.07340,-22812.95061
32.30000,-1.07651,-22887.05111
32.40000,-1.07998,-22984.50321
32.50000,-1.08339,-23088.89329
32.60000,-1.08661,-23175.66723
32.70000,-1.08996,-23265.30516
32.80000,-1.09337,-23366.05638
32.90000,-1.09660,-23452.02565
33.00000,-1.09995,-23538.61779
33.10000,-1.10336,-23640.34355
33.20000,-1.10664,-23733.13308
33.30000,-1.10993,-23822.56240
33.40000,-1.11328,-23912.84555
33.50000,-1.11657,-24005.64700
33.60000,-1.11998,-24096.01808
33.70000,-1.12327,-24183.75462
33.80000,-1.12667,-24286.21650
33.90000,-1.12984,-24373.03513
34.00000,-1.13331,-24468.27590
34.10000,-1.13666,-24569.66639
34.20000,-1.13989,-24653.34833
34.30000,-1.14324,-24747.97070
34.40000,-1.14658,-24839.77079
34.50000,-1.14987,-24928.87229
34.60000,-1.15328,-25026.88468
34.70000,-1.15669,-25124.88961
34.80000,-1.15992,-25211.53390
34.90000,-1.16332,-25311.30016
35.00000,-1.16667,-25402.00949
35.10000,-1.16990,-25481.70686
35.20000,-1.17331,-25580.42407
35.30000,-1.17666,-25681.03075
35.40000,-1.17989,-25764.32824
35.50000,-1.18335,-25864.88426
35.60000,-1.18664,-25959.16390
35.70000,-1.18999,-26050.25470
35.80000,-1.19328,-26134.66382
35.90000,-1.19669,-26233.43170
36.00000,-1.19998,-26324.85926
36.10000,-1.20320,-26409.76310
36.20000,-1.20667,-26509.83930
36.30000,-1.20996,-26599.71714
36.40000,-1.21319,-26682.25169
36.50000,-1.21666,-26780.45034
36.60000,-1.21994,-26872.35177
36.70000,-1.22311,-26950.08218
36.80000,-1.22658,-27052.70648
36.90000,-1.23005,-27158.62989
37.00000,-1.23310,-27230.53098
37.10000,-1.23669,-27334.15663
37.20000,-1.23997,-27434.35800
37.30000,-1.24326,-27515.79881
37.40000,-1.24667,-27610.62980
37.50000,-1.25008,-27716.36844
37.60000,-1.25325,-27799.44241
37.70000,-1.25660,-27886.40559
37.80000,-1.26000,-27983.70123
37.90000,-1.26323,-28068.82262
38.00000,-1.26658,-28155.28810
38.10000,-1.27011,-28251.54066
38.20000,-1.27328,-28341.72249
38.30000,-1.27657,-28423.02918
38.40000,-1.27997,-28521.19803
38.50000,-1.28332,-28609.99405
38.60000,-1.28649,-28689.52453
38.70000,-1.29002,-28790.11631
38.80000,-1.29331,-28889.06598
38.90000,-1.29642,-28959.24151
39.00000,-1.30000,-29067.11996
39.10000,-1.30329,-29166.00108
39.20000,-1.30658,-29244.19343
39.30000,-1.30993,-29340.74402
39.40000,-1.31334,-29438.25126
39.50000,-1.31656,-29516.06214
39.60000,-1.31991,-29609.52222
39.70000,-1.32332,-29712.71873
39.80000,-1.32661,-29802.79028
39.90000,-1.32990,-29889.47034
40.00000,-1.33331,-29987.95509
40.10000,-1.33659,-30076.37262
40.20000,-1.34000,-30171.48376
40.30000,-1.34329,-30256.69158
40.40000,-1.34664,-30361.63747
40.50000,-1.34987,-30442.05904
40.60000,-1.35334,-30539.21759
40.70000,-1.35662,-30636.44469
40.80000,-1.35997,-30722.35882
40.90000,-1.36338,-30820.19389
41.00000,-1.36655,-30904.82354
41.10000,-1.36984,-30995.44644
41.20000,-1.37331,-31097.75484
41.30000,-1.37659,-31188.32707
41.40000,-1.37988,-31269.96756
41.50000,-1.38335,-31369.78745
41.60000,-1.38664,-31455.97577
41.70000,-1.38987,-31539.69944
41.80000,-1.39333,-31640.35976
41.90000,-1.39662,-31736.29045
42.00000,-1.39991,-31823.22085
42.10000,-1.40326,-31922.95432
42.20000,-1.40667,-32013.14807
42.30000,-1.40996,-32103.97959
42.40000,-1.41324,-32192.45374
42.50000,-1.41671,-32296.31484
42.60000,-1.41994,-32382.29454
42.70000,-1.42329,-32479.00903
42.80000,-1.42670,-32577.00205
42.90000,-1.42993,-32663.89668
43.00000,-1.43321,-32743.46292
43.10000,-1.43668,-32855.31700
43.20000,-1.43985,-32939.48174
43.30000,-1.44308,-33018.26715
43.40000,-1.44661,-33131.23882
43.50000,-1.44996,-33238.00564
43.60000,-1.45312,-33306.67019
43.70000,-1.45671,-33415.95531
43.80000,-1.46000,-33511.18267
43.90000,-1.46323,-33591.18998
44.00000,-1.46670,-33691.93375
44.10000,-1.47010,-33794.64746
44.20000,-1.47321,-33869.51983
44.30000,-1.47662,-33960.98912
44.40000,-1.48003,-34058.85696
44.50000,-1.48326,-34143.80550
44.60000,-1.48661,-34235.15558
44.70000,-1.49007,-34344.69402
44.80000,-1.49324,-34437.25705
44.90000,-1.49653,-34525.14410
45.00000,-1.49994,-34622.47252
45.10000,-1.50329,-34716.88926
45.20000,-1.50652,-34802.83916
45.30000,-1.51004,-34913.06603
45.40000,-1.51327,-35014.28366
45.50000,-1.51650,-35095.99566
45.60000,-1.52003,-35208.33850
45.70000,-1.52332,-35304.74901
45.80000,-1.52655,-35393.30363
45.90000,-1.53001,-35491.16850
46.00000,-1.53330,-35591.86757
46.10000,-1.53653,-35679.14665
46.20000,-1.53994,-35782.04215
46.30000,-1.54329,-35877.02811
46.40000,-1.54657,-35964.38766
46.50000,-1.54992,-36054.76916
46.60000,-1.55333,-36147.90738
46.70000,-1.55662,-36233.54435
46.80000,-1.55991,-36336.08222
46.90000,-1.56332,-36427.64390
47.00000,-1.56666,-36527.06742
47.10000,-1.56989,-36607.60820
47.20000,-1.57342,-36718.25826
47.30000,-1.57659,-36805.17077
47.40000,-1.57994,-36894.26482
47.50000,-1.58329,-37001.25813
47.60000,-1.58657,-37102.23734
47.70000,-1.58986,-37193.92121
47.80000,-1.59333,-37301.12016
47.90000,-1.59656,-37401.74770
48.00000,-1.59997,-37496.74857
48.10000,-1.60332,-37598.41919
48.20000,-1.60654,-37693.26806
48.30000,-1.60983,-37790.92133
48.40000,-1.61336,-37904.17612
48.50000,-1.61653,-37996.08350
48.60000,-1.61994,-38091.65061
48.70000,-1.62328,-38198.39060
48.80000,-1.62663,-38293.83850
48.90000,-1.62992,-38388.40425
49.00000,-1.63333,-38490.53979
49.10000,-1.63674,-38600.43287
49.20000,-1.63991,-38678.22289
49.30000,-1.64325,-38776.65102
49.40000,-1.64672,-38884.51755
49.50000,-1.64995,-38965.47854
49.60000,-1.65324,-39054.65603
49.70000,-1.65677,-39177.08993
49.80000,-1.65988,-39267.73071
49.90000,-1.66316,-39351.84181
50.00000,-1.66669,-39467.91887
50.10000,-1.66992,-39569.59844
50.20000,-1.67327,-39657.57191
50.30000,-1.67674,-39773.91422
50.40000,-1.67991,-39863.44337
50.50000,-1.68325,-39962.36920
50.60000,-1.68672,-40072.02089
50.70000,-1.69007,-40175.15779
50.80000,-1.69318,-40253.21901
50.90000,-1.69665,-40366.22643
51.00000,-1.69994,-40465.42645
51.10000,-1.70310,-40550.74453
51.20000,-1.70663,-40664.43741
51.30000,-1.71010,-40778.77700
51.40000,-1.71321,-40861.58276
51.50000,-1.71656,-40958.96184
51.60000,-1.72002,-41070.45829
51.70000,-1.72325,-41163.25974
51.80000,-1.72648,-41251.08123
51.90000,-1.73013,-41378.89147
52.00000,-1.73318,-41463.25290
52.10000,-1.73659,-41559.50546
52.20000,-1.74005,-41677.46902
52.30000,-1.74328,-41766.94155
52.40000,-1.74657,-41863.50107
52.50000,-1.74998,-41971.61496
52.60000,-1.75321,-42071.59877
52.70000,-1.75650,-42170.60208
52.80000,-1.75996,-42286.38709
52.90000,-1.76325,-42390.42997
53.00000,-1.76660,-42491.87410
53.10000,-1.76989,-42591.18438
53.20000,-1.77324,-42702.90434
53.30000,-1.77659,-42804.64351
53.40000,-1.77981,-42906.90720
53.50000,-1.78328,-43020.54346
53.60000,-1.78657,-43127.90036
53.70000,-1.78992,-43217.44144
53.80000,-1.79339,-43339.72037
53.90000,-1.79655,-43431.10621
54.00000,-1.79996,-43539.70587
54.10000,-1.80331,-43645.29550
54.20000,-1.80660,-43747.45786
54.30000,-1.80995,-43848.76788
54.40000,-1.81336,-43962.16273
54.50000,-1.81664,-44056.64504
54.60000,-1.81999,-44164.27314
54.70000,-1.82334,-44274.89340
54.80000,-1.82657,-44371.38736
54.90000,-1.82992,-44473.37985
55.00000,-1.83333,-44593.84978
55.10000,-1.83655,-44688.61222
55.20000,-1.83996,-44798.34437
55.30000,-1.84319,-44896.04831
55.40000,-1.84654,-45014.40823
55.50000,-1.84989,-45125.04935
55.60000,-1.85335,-45235.48782
55.70000,-1.85664,-45343.78350
55.80000,-1.85987,-45445.46008
55.90000,-1.86328,-45557.15919
56.00000,-1.86663,-45664.55185
56.10000,-1.86980,-45761.99651
56.20000,-1.87332,-45885.47349
56.30000,-1.87673,-46010.64920
56.40000,-1.87984,-46092.30459
56.50000,-1.88325,-46204.16760
56.60000,-1.88678,-46336.73429
56.70000,-1.88983,-46421.67985
56.80000,-1.89329,-46523.78559
56.90000,-1.89664,-46654.41811
57.00000,-1.89987,-46749.84515
57.10000,-1.90328,-46860.38196
57.20000,-1.90675,-46977.08786
57.30000,-1.90998,-47089.01346
57.40000,-1.91326,-47176.95117
57.50000,-1.91667,-47296.73266
57.60000,-1.91990,-47405.49028
57.70000,-1.92319,-47506.19233
57.80000,-1.92672,-47627.44308
57.90000,-1.92995,-47740.93628
58.00000,-1.93317,-47837.70144
58.10000,-1.93658,-47952.38972
58.20000,-1.93993,-48069.66782
58.30000,-1.94304,-48171.42487
58.40000,-1.94657,-48291.17060
58.50000,-1.95009,-48432.95217
58.60000,-1.95320,-48506.28078
58.70000,-1.95667,-48635.48279
58.80000,-1.96002,-48754.74274
58.90000,-1.96325,-48849.86579
59.00000,-1.96660,-48961.45463
59.10000,-1.97000,-49088.37080
59.20000,-1.97329,-49188.98344
59.30000,-1.97658,-49297.31190
59.40000,-1.98005,-49421.90349
59.50000,-1.98334,-49531.22735
59.60000,-1.98663,-49637.91370
59.70000,-1.98991,-49739.89427
59.80000,-1.99326,-49865.75842
59.90000,-1.99667,-49982.27060
60.00000,-1.99984,-50076.72906
60.10000,-2.00337,-50211.51304
60.20000,-2.00660,-50319.54050
60.30000,-2.01000,-50427.77658
60.40000,-2.01329,-50553.66158
60.50000,-2.01652,-50663.38778
60.60000,-2.01993,-50787.34159
60.70000,-2.02328,-50900.08378
60.80000,-2.02651,-51006.07872
60.90000,-2.02991,-51132.36308
61.00000,-2.03326,-51251.82867
61.10000,-2.03649,-51354.71225
61.20000,-2.03996,-51486.72462
61.30000,-2.04325,-51607.56111
61.40000,-2.04648,-51708.91285
61.50000,-2.04994,-51828.90892
61.60000,-2.05335,-51964.99228
61.70000,-2.05652,-52062.43396
61.80000,-2.05999,-52185.45198
61.90000,-2.06328,-52306.43749
62.00000,-2.06662,-52429.75354
62.10000,-2.06997,-52543.76531
62.20000,-2.07344,-52670.16888
62.30000,-2.07661,-52779.86526
62.40000,-2.07990,-52890.59281
62.50000,-2.08331,-53012.77041
62.60000,-2.08659,-53132.11679
62.70000,-2.08982,-53239.15482
62.80000,-2.09335,-53373.61097
62.90000,-2.09664,-53496.50383
63.00000,-2.09981,-53590.38711
63.10000,-2.10328,-53715.71779
63.20000,-2.10668,-53852.44489
63.30000,-2.10973,-53940.91010
63.40000,-2.11332,-54072.79730
63.50000,-2.11661,-54207.63493
63.60000,-2.11990,-54310.97150
63.70000,-2.12336,-54437.65521
63.80000,-2.12683,-54575.38366
63.90000,-2.12982,-54676.61619
64.00000,-2.13317,-54782.39059
64.10001,-2.13670,-54932.65986
64.20000,-2.13981,-55049.69358
